Pressure (Pa)
10.468417
10.412572
10.585964
10.484070
10.778068
10.915212
10.846873
11.004686
11.034623
11.025891
11.149202
11.284301
11.362877
11.400906
11.539883
11.555127
11.650330
11.805382
11.877048
11.969666
11.983433
12.055548
12.132987
12.055411
12.410019
12.290428
12.354981
12.379574
12.538323
12.587677
12.791042
12.720674
12.833658
12.796075
12.991980
13.172354
13.262942
13.048855
13.218485
13.198089
13.437572
13.339682
13.525542
13.514347
13.725641
13.782918
13.783828
13.784770
13.821024
14.018535
13.838294
14.072012
14.110082
14.231546
14.333588
14.240233
14.380363
14.345715
14.353484
14.597531
14.613433
14.714311
14.584607
14.791692
15.002351
14.671927
14.979079
15.023660
14.970786
15.026054
15.176138
15.296298
15.285702
15.241033
15.313051
15.200584
15.608389
15.338539
15.466109
15.529717
15.834436
15.590114
15.827370
15.851793
15.728016
15.749189
15.914747
15.839734
16.023760
15.916587
16.030687
16.065732
16.186241
16.147779
16.292106
16.306999
16.337690
16.342346
16.279430
16.293201
16.354137
16.344760
16.520313
16.578273
16.496381
16.544406
16.373057
16.503537
16.711675
16.702934
16.582658
16.693414
16.943987
16.746771
16.740487
16.695275
16.846365
16.883444
17.100883
16.963375
17.139996
16.787748
16.952990
17.120898
16.972382
17.142819
17.115623
17.179799
17.261869
17.147883
17.157636
17.113410
17.225964
17.116014
17.231632
17.360612
17.462466
17.243976
17.465382
17.247698
17.457190
17.407626
17.364081
17.276632
17.463400
17.383287
17.480254
17.305428
17.437371
17.343951
17.591859
17.432020
17.574439
17.370704
17.421491
17.665236
17.496011
17.581342
17.429788
17.281636
17.425791
17.756353
17.353809
17.635976
17.733721
17.566907
17.374301
17.677351
17.478037
17.514778
17.731377
17.513593
17.829341
17.560175
17.715338
17.651993
17.452930
17.414394
17.655613
17.299267
17.703110
17.551353
17.464883
17.517968
17.342735
17.499315
17.381387
17.428769
17.441433
17.446111
17.766891
17.500973
17.373944
17.389270
17.431033
17.249902
17.355276
17.525332
17.366786
17.381241
17.454708
17.463465
17.146723
17.434572
17.209592
17.393977
17.652246
17.608058
17.580479
17.312597
17.308496
17.572532
17.298444
17.363331
17.534276
17.584594
17.366993
17.060509
17.516917
17.446408
17.028917
17.412464
17.210039
17.201274
17.108728
17.038957
17.467457
17.224767
17.035696
17.264543
17.252334
17.274617
16.937329
17.046940
17.216445
16.960795
17.148385
16.974664
16.924692
17.144620
16.947746
16.775274
17.062100
16.897324
16.970056
16.886416
17.117198
17.012099
16.981609
17.061711
16.841803
16.670670
16.946745
16.698634
16.852089
16.915882
16.632358
16.814788
16.929209
16.677697
16.785798
16.934241
16.831728
16.930297
16.845252
16.906033
16.751974
16.517298
16.610366
16.855035
16.792261
16.700842
16.534410
16.668749
16.761014
16.429249
16.663119
16.478388
16.552291
16.752648
16.451100
16.609294
16.779856
16.264372
16.591584
16.601218
16.387586
16.393939
16.526601
16.580602
16.199816
16.408231
16.402769
16.328393
16.392920
16.212179
16.352677
16.596225
16.192870
16.342647
16.346719
16.347335
16.426890
16.407899
16.265629
16.205234
16.055432
16.257660
16.277827
16.273801
16.042246
16.177223
16.141723
16.184602
16.123689
15.977141
16.207612
16.367437
16.095526
16.179346
16.084240
16.133068
16.411660
16.267362
16.045052
15.992334
16.148288
15.962441
15.814955
15.896730
16.360796
15.929191
15.818979
15.970046
16.094847
16.111244
16.246604
16.279852
16.079653
16.060197
15.965502
15.932508
15.853924
15.916527
15.782300
15.837027
16.079934
15.872890
16.155572
15.858221
15.866624
15.894075
15.751121
15.975894
15.845379
15.963164
16.061448
15.844447
15.810293
15.859286
15.684273
15.853198
15.968884
15.843071
15.964360
15.742951
15.823300
15.889026
15.856806
16.041825
15.732729
15.858270
15.729440
15.850456
15.764164
15.788194
15.701591
15.955195
16.061077
15.838758
15.625629
15.735389
15.815867
15.752448
15.776214
15.637824
15.730813
15.886604
15.869062
15.964010
15.703880
15.568706
15.716441
15.598752
15.759722
15.836003
15.722912
15.749672
15.543205
15.704669
15.805494
15.624395
15.778631
15.789801
15.574421
15.836248
15.946832
15.917120
15.707810
16.018901
15.881096
15.968618
15.643682
15.651182
15.947254
15.629613
15.730513
15.673098
15.658189
15.839794
15.827559
15.840710
15.927958
15.535458
15.825689
15.559740
15.677378
15.755209
15.885370
15.735666
16.047069
15.847516
15.703479
15.844079
15.876517
15.603157
15.805697
15.721980
15.679671
15.661738
15.640046
16.053402
15.766820
15.788435
15.954088
15.810830
16.016120
15.606643
15.762592
15.643379
15.875917
15.871959
15.686459
15.845805
15.920334
15.835579
15.755184
15.993684
15.867283
15.658377
15.747087
15.907059
15.707522
16.144002
15.715227
15.711176
16.005126
15.963372
15.728506
16.025447
16.108806
15.764521
15.731743
15.919639
16.202020
15.823802
15.923828
16.024183
15.937766
15.905747
15.921024
15.822111
15.721077
16.122319
15.935253
15.951848
15.837187
15.745248
15.693452
15.959053
16.185973
16.065924
15.926600
15.758482
16.100486
16.207260
16.084650
15.758976
15.919891
16.029385
15.949094
16.055763
16.095406
16.191128
15.980453
15.969403
15.760390
15.908325
15.884957
16.244572
15.941783
16.111967
16.066762
16.070105
16.118253
16.354615
16.180459
16.347129
15.938616
16.254752
15.978716
16.133356
16.319570
16.349560
16.307483
15.917133
16.243570
16.273583
16.013074
16.157709
16.350747
15.998025
16.174430
16.329006
16.533163
16.198354
16.326731
16.363979
16.314795
16.130208
16.176590
16.376485
16.110069
16.106626
16.082818
16.208890
16.452583
16.108701
16.574270
16.385531
16.341327
16.058184
16.174054
16.102001
16.245386
16.358117
16.253985
16.274345
16.465246
16.366083
16.481530
16.327095
16.301125
16.428811
16.410011
16.329072
16.546708
16.381664
16.352725
16.181076
16.259180
16.355997
16.420584
16.231541
16.430423
16.291176
16.600437
16.425337
16.333959
16.542563
16.204353
16.670040
16.432459
16.318388
16.700196
16.554994
16.678482
16.246620
16.282446
16.456575
16.428800
16.514198
16.541471
16.405000
16.488779
16.283088
16.466103
16.229712
16.518307
16.584699
16.579057
16.523669
16.555787
16.647068
16.709872
16.386033
16.538966
16.727127
16.643433
16.398035
16.341167
16.686243
16.566010
16.841969
16.522364
16.683374
16.633648
16.415626
16.430370
16.595185
16.502868
16.760473
16.575289
16.675635
16.404806
16.658405
16.480076
16.763867
16.525693
16.754531
16.601706
16.563087
16.754201
16.485648
16.551731
16.786573
16.767230
16.507393
16.538545
16.654221
16.555624
16.672667
16.920272
16.810386
16.926359
16.716957
16.421356
16.668822
16.741664
16.635872
16.411466
16.737549
16.634225
16.628654
16.680860
16.851371
16.651309
16.670568
16.603072
16.803731
16.635860
16.593769
16.852004
16.722709
16.774567
16.832601
16.810520
16.622539
16.562312
16.695688
16.501150
16.720101
16.459193
16.584869
16.839229
16.620906
16.628711
16.719566
16.550339
16.649488
16.762775
16.987377
16.615083
16.739876
16.887854
16.869787
16.616362
16.912505
16.649427
16.766260
16.702058
16.572776
16.724195
16.672890
16.499348
16.760132
16.686321
16.853515
16.700924
16.833239
16.713269
16.604612
16.716873
16.727339
16.732207
16.701793
16.570564
16.597098
16.832861
16.654518
16.773006
16.923921
16.900771
16.694400
17.060231
16.895123
16.676287
16.886461
16.749551
16.986343
16.772892
16.670457
16.974719
16.830406
16.886289
16.574725
16.664325
16.762050
16.609231
16.898684
16.524791
16.920457
16.526819
16.763871
16.841582
16.873451
16.975135
16.851204
16.684220
16.705237
16.729363
16.617572
16.786203
16.809351
16.951279
16.812071
16.856854
16.907317
17.004848
16.668321
16.466980
16.826166
17.043829
16.913860
16.729341
16.914564
16.810561
16.750297
17.043906
16.872241
16.999676
16.719049
16.885314
16.890533
16.770686
16.689102
16.987395
16.909551
16.771296
16.868971
16.755166
16.713867
16.750863
16.738060
16.696987
16.731944
16.477641
16.976479
16.688116
17.027173
16.840255
16.682144
16.670240
16.714443
16.491988
16.790393
16.610365
16.734590
17.026166
16.967323
16.549141
16.894730
16.744977
17.015758
16.824049
16.689655
16.647307
16.865681
16.719150
16.879865
16.657673
16.639667
16.697965
16.980530
16.961528
16.932534
16.577937
16.660802
16.570579
16.785953
16.989390
16.813484
16.565160
16.722721
16.570125
16.735486
16.733951
16.659075
16.743268
17.021201
16.715324
16.508507
16.537950
16.591770
16.580160
16.717344
16.898610
16.946838
16.788256
16.677421
16.713296
16.822903
16.994712
16.506824
16.737550
16.998360
16.630356
16.753565
16.620778
16.816067
16.710133
16.440372
16.602752
16.861287
16.688646
16.716658
16.658491
16.618670
16.943814
16.715830
16.872003
16.654647
16.584698
16.501919
16.611624
16.910530
16.460549
16.853004
16.797118
16.675197
16.822085
16.380666
16.746891
16.663605
16.769422
16.724337
16.876970
16.703790
16.646866
16.866110
16.722027
16.770770
16.575220
16.656480
16.616848
16.586752
16.935596
16.768807
16.531476
16.559066
16.411442
16.793213
16.714735
16.533745
16.486930
16.747386
16.791235
16.604401
16.767398
16.708210
16.552476
16.541061
16.601009
16.777723
16.729298
16.490513
16.820263
16.530708
16.903826
16.731715
16.681128
16.595084
16.493252
16.793085
16.693667
16.674282
16.767286
16.516686
16.567559
16.523820
16.444915
16.762778
16.456390
16.609118
16.683995
16.590492
16.770912
16.591951
16.892854
16.669480
16.411189
16.410466
16.879651
16.750188
16.663029
16.661559
16.418322
16.647718
16.904299
16.532685
16.592861
16.693909
16.680818
16.422146
16.466601
16.570125
16.493605
16.536672
16.377339
16.625776
16.819487
16.538950
16.647765
16.436067
16.537467
16.770617
16.536021
16.864516
16.726056
16.654311
16.716900
16.669795
16.484652
16.448258
16.441190
16.541963
16.621805
16.456876
16.474348
16.548106
16.555674
16.685442
16.622035
16.810328
16.616214
16.663357
16.666105
16.814073
16.636054
16.410190
16.477783
16.787869
16.674302
16.558276
16.829167
16.413053
16.714529
16.655905
16.663005
16.421481
16.634994
16.438531
16.448566
16.799738
16.589539
16.451700
16.444464
16.649679
16.688296
16.547688
16.819467
16.687585
16.562700
16.640586
16.423796
16.510768
16.703774
16.762185
16.753359
16.694836
